Index	Frequency (Hz)	Z' (Ω)	-Z'' (Ω)	Z (Ω)	-Phase (°)	Time (s)
1	0.5	4290.84180857913	1161.81627028173	4445.35043299648	15.1505010503636	134.622496660111
2	0.38236	4431.65576945769	976.852421780647	4538.0407130067	12.430700931262	143.451658637819
3	0.2924	4530.70370566568	833.096893479993	4606.66110132477	10.4190491269655	148.87375862413
4	0.22361	4608.89283923941	714.40448760755	4663.93256549729	8.8110498073201	155.190872608181
5	0.171	4669.24974254271	632.354264026567	4711.87490002311	7.71261574396761	162.653013589341
6	0.13077	4736.03173407809	584.191116884706	4771.92580068485	7.03193301508169	171.445175567143
7	0.1	4784.83316849642	546.993796684797	4815.99736959595	6.52164236995658	182.072372540311
