Index	Frequency (Hz)	Z' (Ω)	-Z'' (Ω)	Z (Ω)	-Phase (°)	Time (s)
1	0.5	4311.68658725796	1169.68188549308	4467.52693780248	15.1780019888005	195.204616507156
2	0.38236	4446.87711270793	984.246731224243	4554.49862042478	12.4803221511212	200.2567084944
3	0.2924	4547.23555935078	834.240105185258	4623.12748962471	10.3959311679792	205.763809480496
4	0.22361	4622.17260869102	719.231114268339	4677.79574375209	8.84455570107161	212.155928464358
5	0.171	4684.86750380668	635.00958682566	4727.70776419021	7.7191034846771	219.533064445732
6	0.13077	4750.2121593574	574.785500914038	4784.86091030533	6.89936599745911	228.425229423282
7	0.1	4802.86540346872	562.520681512458	4835.6949449863	6.68015592354374	238.992424396602
