Index	Frequency (Hz)	Z' (Ω)	-Z'' (Ω)	Z (Ω)	-Phase (°)	Time (s)
1	0.5	4354.0682233837	1186.22219645128	4512.76336552598	15.2397957346949	365.67477007676
2	0.38236	4492.70701944398	1000.79809275603	4602.82665163759	12.5581992921504	370.641864064219
3	0.2924	4594.84471261591	849.050304264005	4672.63141626056	10.4692093667871	376.228965050113
4	0.22361	4675.35264717581	731.388563287565	4732.214239229	8.89100323456409	382.526084034214
5	0.171	4735.36842101372	645.519238103308	4779.16406597382	7.76263799589664	390.278225014642
6	0.13077	4809.39830572313	588.19740572356	4845.23356002499	6.97274126734138	399.225391992053
7	0.1	4852.59373585326	566.12917016731	4885.50593107373	6.65434623461378	409.772586965424
