Index	Frequency (Hz)	Z' (Ω)	-Z'' (Ω)	Z (Ω)	-Phase (°)	Time (s)
1	0.5	4343.33390091777	1187.1796526717	4502.65975869588	15.2874555334251	308.609713220835
2	0.38236	4479.22307558566	994.834138867124	4588.369462534	12.5221183403095	313.66180720808
3	0.2924	4581.07993012243	844.002523232284	4658.17921353322	10.4389194109701	319.073907194416
4	0.22361	4657.86632191298	726.982197572044	4714.25728915997	8.87093967214992	325.306024178681
5	0.171	4718.59626729697	648.288910934229	4762.92234303575	7.82290238614067	332.583159160308
6	0.13077	4784.63006706468	582.947088962824	4820.01163766121	6.9465339471549	341.505324137782
7	0.1	4847.53823888414	565.387599148238	4880.3985610516	6.65257646018325	352.092520111052
