Index	Frequency (Hz)	Z' (Ω)	-Z'' (Ω)	Z (Ω)	-Phase (°)	Time (s)
1	0.5	4323.67633925177	1167.90930517459	4478.63698369481	15.1159567316283	252.179668363308
2	0.38236	4464.08630138124	988.42075832352	4572.20319995344	12.4847885217136	257.031763351057
3	0.2924	4562.78800936675	837.696807877256	4639.04843263667	10.4032617126469	262.518859337204
4	0.22361	4637.669800702	723.734264571615	4693.80149410458	8.86978502900116	268.700976321595
5	0.171	4703.12811224418	649.68975209576	4747.79009794659	7.8650579141062	276.07811130297
6	0.13077	4764.64607923378	579.627718779683	4799.77296887422	6.93605215569969	284.83527528086
7	0.1	4840.62691704373	559.636581425222	4872.87000168049	6.59482494872374	295.417469254143
