Index	Frequency (Hz)	Z' (Ω)	-Z'' (Ω)	Z (Ω)	-Phase (°)	Time (s)
1	0.5	4368.58062366272	1189.32802775449	4527.58189578541	15.2294427109229	422.839829932432
2	0.38236	4512.67360331115	1010.82527810373	4624.49897749742	12.6256723454112	427.861923919752
3	0.2924	4613.86375682006	855.652967668656	4692.53457819736	10.5062892824911	433.319024905975
4	0.22361	4688.51938272351	734.836066984395	4745.75579307608	8.90755649282581	439.511136890341
5	0.171	4749.94755433665	657.421345217868	4795.22727241336	7.88001826351016	446.943277871577
6	0.13077	4815.91141311228	585.969870648858	4851.42900888525	6.93729055194238	455.600434849719
7	0.1	4884.59020337595	571.240312228693	4917.87931421985	6.67029554950764	466.177632823015
